#X,Acoustic Pressure across Frequency(4)_At Node 923,Acoustic Pressure across Frequency(4)_At Node 923
#Frequency(Hz),Angle(degrees)_Phase,Pressure(N/mm^2(MPa))_Magnitude
20.000000,-237.107881,0.000234
30.000000,-248.037191,0.000172
40.000000,-254.719352,0.000135
50.000000,-259.321395,0.000111
60.000000,-262.780816,0.000094
70.000000,-265.552575,0.000081
80.000000,-267.880649,0.000072
90.000000,-269.906644,0.000064
100.000000,-271.718035,0.000059
110.000000,-273.371627,0.000054
120.000000,-274.905850,0.000050
130.000000,-276.347602,0.000047
140.000000,-277.716272,0.000044
150.000000,-279.026196,0.000041
160.000000,-280.288213,0.000039
170.000000,-281.510686,0.000038
180.000000,-282.700185,0.000036
190.000000,-283.861963,0.000035
200.000000,-285.000284,0.000034
210.000000,-286.118656,0.000033
220.000000,-287.220012,0.000032
230.000000,-288.306828,0.000031
240.000000,-289.381230,0.000030
250.000000,-290.445054,0.000030
260.000000,-291.499909,0.000030
270.000000,-292.547215,0.000029
280.000000,-293.588248,0.000029
290.000000,-294.624145,0.000029
300.000000,-295.655950,0.000029
310.000000,-296.684614,0.000028
320.000000,-297.711014,0.000028
330.000000,-298.735967,0.000029
340.000000,-299.760233,0.000029
350.000000,-300.784530,0.000029
360.000000,-301.809539,0.000029
370.000000,-302.835902,0.000029
380.000000,-303.864248,0.000030
390.000000,-304.895174,0.000030
400.000000,-305.929262,0.000031
410.000000,-306.967088,0.000032
420.000000,-308.009229,0.000032
430.000000,-309.056251,0.000033
440.000000,-310.108738,0.000034
450.000000,-311.167294,0.000035
460.000000,-312.232540,0.000036
470.000000,-313.305153,0.000038
480.000000,-314.385850,0.000039
490.000000,-315.475424,0.000041
500.000000,-316.574760,0.000042
510.000000,-317.684862,0.000044
520.000000,-318.806895,0.000047
530.000000,-319.942206,0.000049
540.000000,-321.092414,0.000052
550.000000,-322.259457,0.000056
560.000000,-323.445701,0.000059
570.000000,-324.654068,0.000064
580.000000,-325.888232,0.000069
590.000000,-327.152843,0.000075
600.000000,-328.453927,0.000081
610.000000,-329.799376,0.000089
620.000000,-331.199777,0.000099
630.000000,-332.669602,0.000111
640.000000,-334.229187,0.000125
650.000000,-335.907979,0.000143
660.000000,-337.750236,0.000165
670.000000,-339.825594,0.000195
680.000000,-342.250044,0.000235
690.000000,-345.231642,0.000293
700.000000,-349.182062,0.000380
710.000000,-355.033849,0.000525
720.000000,-5.340702,0.000796
730.000000,-28.768018,0.001362
740.000000,-81.514833,0.001811
750.000000,-121.810221,0.001219
760.000000,-137.896908,0.000829
770.000000,-145.871695,0.000636
780.000000,-150.834899,0.000529
790.000000,-154.420537,0.000465
800.000000,-157.284670,0.000426
810.000000,-159.742343,0.000403
820.000000,-161.969498,0.000392
830.000000,-164.081143,0.000392
840.000000,-166.168809,0.000402
850.000000,-168.325586,0.000424
860.000000,-170.674137,0.000463
870.000000,-173.418042,0.000527
880.000000,-176.972499,0.000636
890.000000,-182.400629,0.000840
900.000000,-193.489770,0.001312
910.000000,-232.391169,0.002662
920.000000,-310.403504,0.001877
930.000000,-333.006164,0.000909
940.000000,-341.023818,0.000566
950.000000,-345.396687,0.000400
960.000000,-348.368631,0.000305
970.000000,-350.658476,0.000243
980.000000,-352.564657,0.000200
990.000000,-354.233112,0.000169
1000.000000,-355.743736,0.000146
1010.000000,-357.144059,0.000127
1020.000000,-358.464227,0.000113
1030.000000,-359.724360,0.000101
1040.000000,-0.938460,0.000091
1050.000000,-2.116622,0.000083
1060.000000,-3.266339,0.000076
1070.000000,-4.393328,0.000070
1080.000000,-5.502038,0.000065
1090.000000,-6.596010,0.000061
1100.000000,-7.678105,0.000057
1110.000000,-8.750674,0.000054
1120.000000,-9.815673,0.000051
1130.000000,-10.874749,0.000048
1140.000000,-11.929302,0.000046
1150.000000,-12.980537,0.000044
1160.000000,-14.029491,0.000042
1170.000000,-15.077072,0.000041
1180.000000,-16.124072,0.000039
1190.000000,-17.171189,0.000038
1200.000000,-18.219046,0.000037
1210.000000,-19.268191,0.000036
1220.000000,-20.319124,0.000035
1230.000000,-21.372294,0.000034
1240.000000,-22.428126,0.000033
1250.000000,-23.487095,0.000033
1260.000000,-24.551050,0.000032
1270.000000,-25.615086,0.000032
1280.000000,-26.684456,0.000032
1290.000000,-27.758551,0.000031
1300.000000,-28.837308,0.000031
1310.000000,-29.921045,0.000031
1320.000000,-31.010128,0.000031
1330.000000,-32.104950,0.000031
1340.000000,-33.205969,0.000031
1350.000000,-34.313698,0.000031
1360.000000,-35.428741,0.000031
1370.000000,-36.551806,0.000032
1380.000000,-37.683733,0.000032
1390.000000,-38.825523,0.000033
1400.000000,-39.978383,0.000033
1410.000000,-41.143776,0.000034
1420.000000,-42.323472,0.000035
1430.000000,-43.519648,0.000036
1440.000000,-44.734977,0.000037
1450.000000,-45.972772,0.000038
1460.000000,-47.237183,0.000040
1470.000000,-48.533447,0.000041
1480.000000,-49.868234,0.000043
1490.000000,-51.250205,0.000046
1500.000000,-52.690797,0.000048
1510.000000,-54.208257,0.000052
1520.000000,-55.808674,0.000056
1530.000000,-57.540764,0.000060
1540.000000,-59.435378,0.000066
1550.000000,-61.554749,0.000074
1560.000000,-63.993723,0.000083
1570.000000,-66.906710,0.000096
1580.000000,-70.561735,0.000113
1590.000000,-75.462489,0.000137
1600.000000,-82.652306,0.000175
1610.000000,-94.527543,0.000237
1620.000000,-116.581902,0.000330
1630.000000,-153.475553,0.000382
1640.000000,-187.327821,0.000303
1650.000000,-206.204167,0.000216
1660.000000,-216.585230,0.000161
1670.000000,-223.057944,0.000126
1680.000000,-227.567849,0.000104
1690.000000,-230.981810,0.000088
1700.000000,-233.729048,0.000076
1710.000000,-236.042836,0.000067
1720.000000,-238.059908,0.000060
1730.000000,-239.865395,0.000055
1740.000000,-241.514972,0.000050
1750.000000,-243.046568,0.000046
1760.000000,-244.486903,0.000043
1770.000000,-245.855381,0.000040
1780.000000,-247.166422,0.000038
1790.000000,-248.431008,0.000036
1800.000000,-249.657647,0.000034
1810.000000,-250.853057,0.000033
1820.000000,-252.022628,0.000032
1830.000000,-253.170731,0.000030
1840.000000,-254.300978,0.000029
1850.000000,-255.416368,0.000029
1860.000000,-256.519432,0.000028
1870.000000,-257.612320,0.000027
1880.000000,-258.696880,0.000026
1890.000000,-259.774706,0.000026
1900.000000,-260.847189,0.000025
1910.000000,-261.915547,0.000025
1920.000000,-262.980856,0.000025
1930.000000,-264.044073,0.000024
1940.000000,-265.106044,0.000024
1950.000000,-266.167536,0.000024
1960.000000,-267.229233,0.000024
1970.000000,-268.291757,0.000024
1980.000000,-269.355674,0.000024
1990.000000,-270.421502,0.000024
2000.000000,-271.489719,0.000024


