#X,Acoustic Pressure across Frequency_At Node 589,Acoustic Pressure across Frequency_At Node 589
#Frequency(Hz),Pressure(N/mm^2(MPa))_Magnitude,Angle(degrees)_Phase
20.000000,0.000136,-241.362027
30.000000,0.000072,-243.595251
40.000000,0.000031,-232.904006
50.000000,0.000014,-152.359666
60.000000,0.000034,-104.779871
70.000000,0.000057,-96.539434
80.000000,0.000079,-93.680768
90.000000,0.000100,-92.342462
100.000000,0.000121,-91.609687
110.000000,0.000141,-91.167185
120.000000,0.000162,-90.881186
130.000000,0.000183,-90.686792
140.000000,0.000204,-90.549404
150.000000,0.000226,-90.449229
160.000000,0.000249,-90.374299
170.000000,0.000273,-90.317055
180.000000,0.000297,-90.272542
190.000000,0.000324,-90.237410
200.000000,0.000351,-90.209339
210.000000,0.000381,-90.186682
220.000000,0.000413,-90.168250
230.000000,0.000447,-90.153174
240.000000,0.000484,-90.140805
250.000000,0.000525,-90.130662
260.000000,0.000570,-90.122382
270.000000,0.000619,-90.115697
280.000000,0.000676,-90.110413
290.000000,0.000739,-90.106399
300.000000,0.000812,-90.103580
310.000000,0.000898,-90.101939
320.000000,0.000998,-90.101523
330.000000,0.001120,-90.102462
340.000000,0.001269,-90.105000
350.000000,0.001459,-90.109573
360.000000,0.001707,-90.116937
370.000000,0.002049,-90.128473
380.000000,0.002551,-90.146915
390.000000,0.003360,-90.178435
400.000000,0.004893,-90.240366
410.000000,0.008921,-90.406749
420.000000,0.048823,-92.072591
430.000000,0.014137,-269.439809
440.000000,0.006182,-269.770676
450.000000,0.003955,-269.862297
460.000000,0.002904,-269.904830
470.000000,0.002292,-269.929161
480.000000,0.001890,-269.944779
490.000000,0.001605,-269.955571
500.000000,0.001392,-269.963419
510.000000,0.001227,-269.969347
520.000000,0.001094,-269.973956
530.000000,0.000985,-269.977626
540.000000,0.000894,-269.980605
550.000000,0.000816,-269.983062
560.000000,0.000748,-269.985118
570.000000,0.000689,-269.986860
580.000000,0.000637,-269.988353
590.000000,0.000591,-269.989647
600.000000,0.000549,-269.990779
610.000000,0.000510,-269.991780
620.000000,0.000476,-269.992673
630.000000,0.000443,-269.993479
640.000000,0.000414,-269.994214
650.000000,0.000386,-269.994892
660.000000,0.000360,-269.995525
670.000000,0.000336,-269.996123
680.000000,0.000313,-269.996696
690.000000,0.000291,-269.997252
700.000000,0.000270,-269.997797
710.000000,0.000250,-269.998335
720.000000,0.000231,-269.998863
730.000000,0.000213,-269.999365
740.000000,0.000195,-269.999789
750.000000,0.000178,-270.000000
760.000000,0.000161,-269.999619
770.000000,0.000145,-269.997506
780.000000,0.000129,-269.989527
790.000000,0.000113,-269.955147
800.000000,0.000097,-269.697014
810.000000,0.000084,-267.535503
820.000000,0.000069,-269.567764
830.000000,0.000054,-269.797042
840.000000,0.000039,-269.845970
850.000000,0.000024,-269.835991
860.000000,0.000009,-269.680244
870.000000,0.000006,-90.337165
880.000000,0.000021,-90.078218
890.000000,0.000037,-90.036942
900.000000,0.000052,-90.021377
910.000000,0.000068,-90.013661
920.000000,0.000084,-90.009251
930.000000,0.000100,-90.006498
940.000000,0.000117,-90.004671
950.000000,0.000134,-90.003403
960.000000,0.000151,-90.002496
970.000000,0.000170,-90.001833
980.000000,0.000189,-90.001320
990.000000,0.000209,-90.000946
1000.000000,0.000229,-90.000660
1010.000000,0.000251,-90.000441
1020.000000,0.000274,-90.000277
1030.000000,0.000299,-90.000157
1040.000000,0.000324,-90.000074
1050.000000,0.000352,-90.000023
1060.000000,0.000382,-90.000001
1070.000000,0.000414,-90.000007
1080.000000,0.000449,-90.000040
1090.000000,0.000487,-90.000100
1100.000000,0.000529,-90.000191
1110.000000,0.000576,-90.000315
1120.000000,0.000629,-90.000478
1130.000000,0.000688,-90.000687
1140.000000,0.000756,-90.000953
1150.000000,0.000834,-90.001288
1160.000000,0.000926,-90.001714
1170.000000,0.001036,-90.002258
1180.000000,0.001170,-90.002964
1190.000000,0.001338,-90.003895
1200.000000,0.001553,-90.005157
1210.000000,0.001843,-90.006928
1220.000000,0.002253,-90.009537
1230.000000,0.002881,-90.013670
1240.000000,0.003966,-90.021028
1250.000000,0.006305,-90.037265
1260.000000,0.015103,-90.099556
1270.000000,0.039712,-269.715442
1280.000000,0.008620,-269.930805
1290.000000,0.004845,-269.956867
1300.000000,0.003372,-269.966750
1310.000000,0.002585,-269.971767
1320.000000,0.002095,-269.974655
1330.000000,0.001759,-269.976404
1340.000000,0.001515,-269.977459
1350.000000,0.001328,-269.978042
1360.000000,0.001180,-269.978279
1370.000000,0.001060,-269.978239
1380.000000,0.000960,-269.977964
1390.000000,0.000876,-269.977473
1400.000000,0.000804,-269.976774
1410.000000,0.000741,-269.975866
1420.000000,0.000685,-269.974736
1430.000000,0.000635,-269.973363
1440.000000,0.000591,-269.971717
1450.000000,0.000550,-269.969756
1460.000000,0.000514,-269.967424
1470.000000,0.000479,-269.964647
1480.000000,0.000448,-269.961325
1490.000000,0.000418,-269.957324
1500.000000,0.000390,-269.952460
1510.000000,0.000364,-269.946476
1520.000000,0.000338,-269.939000
1530.000000,0.000314,-269.929487
1540.000000,0.000290,-269.917093
1550.000000,0.000267,-269.900464
1560.000000,0.000243,-269.877287
1570.000000,0.000219,-269.843315
1580.000000,0.000193,-269.789931
1590.000000,0.000165,-269.697029
1600.000000,0.000132,-269.506346
1610.000000,0.000091,-268.966527
1620.000000,0.000028,-264.307280
1630.000000,0.000102,-93.672269
1640.000000,0.000738,-94.241577
1650.000000,0.000888,-268.156807
1660.000000,0.000399,-269.613019
1670.000000,0.000283,-269.858804
1680.000000,0.000224,-269.942029
1690.000000,0.000186,-269.977573
1700.000000,0.000157,-269.992992
1710.000000,0.000133,-269.999363
1720.000000,0.000111,-269.999243
1730.000000,0.000092,-269.993654
1740.000000,0.000074,-269.981561
1750.000000,0.000057,-269.959121
1760.000000,0.000041,-269.915288
1770.000000,0.000024,-269.809406
1780.000000,0.000009,-269.301050
1790.000000,0.000007,-91.047842
1800.000000,0.000023,-90.398555
1810.000000,0.000039,-90.282240
1820.000000,0.000054,-90.236401
1830.000000,0.000070,-90.213912
1840.000000,0.000087,-90.202264
1850.000000,0.000104,-90.196753
1860.000000,0.000121,-90.195250
1870.000000,0.000138,-90.196694
1880.000000,0.000157,-90.200529
1890.000000,0.000176,-90.206482
1900.000000,0.000196,-90.214398
1910.000000,0.000216,-90.224727
1920.000000,0.000238,-90.237080
1930.000000,0.000261,-90.252495
1940.000000,0.000287,-90.277387
1950.000000,0.000312,-90.300980
1960.000000,0.000340,-90.304889
1970.000000,0.000370,-90.332970
1980.000000,0.000403,-90.364776
1990.000000,0.000439,-90.401842
2000.000000,0.000479,-90.445505


