#X,Acoustic Pressure across Frequency_At Node 586,Acoustic Pressure across Frequency_At Node 586
#Frequency(Hz),Pressure(N/mm^2(MPa))_Magnitude,Angle(degrees)_Phase
20.000000,0.000144,-242.802655
30.000000,0.000083,-247.277843
40.000000,0.000045,-245.469915
50.000000,0.000019,-228.803231
60.000000,0.000012,-135.885959
70.000000,0.000029,-102.944015
80.000000,0.000046,-96.203115
90.000000,0.000062,-93.642685
100.000000,0.000078,-92.380944
110.000000,0.000093,-91.665465
120.000000,0.000108,-91.221922
130.000000,0.000123,-90.929254
140.000000,0.000137,-90.726937
150.000000,0.000152,-90.581906
160.000000,0.000167,-90.474855
170.000000,0.000182,-90.393906
180.000000,0.000197,-90.331437
190.000000,0.000213,-90.282386
200.000000,0.000229,-90.243287
210.000000,0.000246,-90.211710
220.000000,0.000263,-90.185912
230.000000,0.000280,-90.164620
240.000000,0.000299,-90.146886
250.000000,0.000318,-90.131997
260.000000,0.000337,-90.119406
270.000000,0.000358,-90.108691
280.000000,0.000380,-90.099522
290.000000,0.000403,-90.091637
300.000000,0.000428,-90.084830
310.000000,0.000454,-90.078933
320.000000,0.000481,-90.073812
330.000000,0.000511,-90.069359
340.000000,0.000543,-90.065485
350.000000,0.000577,-90.062117
360.000000,0.000614,-90.059199
370.000000,0.000655,-90.056683
380.000000,0.000699,-90.054533
390.000000,0.000749,-90.052720
400.000000,0.000803,-90.051226
410.000000,0.000864,-90.050039
420.000000,0.000934,-90.049156
430.000000,0.001012,-90.048585
440.000000,0.001103,-90.048342
450.000000,0.001209,-90.048462
460.000000,0.001335,-90.048999
470.000000,0.001487,-90.050038
480.000000,0.001674,-90.051710
490.000000,0.001911,-90.054227
500.000000,0.002220,-90.057938
510.000000,0.002643,-90.063458
520.000000,0.003257,-90.071971
530.000000,0.004231,-90.086066
540.000000,0.006018,-90.112686
550.000000,0.010378,-90.178821
560.000000,0.037316,-90.591312
570.000000,0.023458,-269.658491
580.000000,0.008925,-269.880780
590.000000,0.005508,-269.932619
600.000000,0.003979,-269.955523
610.000000,0.003111,-269.968323
620.000000,0.002550,-269.976436
630.000000,0.002158,-269.981999
640.000000,0.001867,-269.986027
650.000000,0.001642,-269.989062
660.000000,0.001463,-269.991423
670.000000,0.001317,-269.993303
680.000000,0.001194,-269.994832
690.000000,0.001090,-269.996096
700.000000,0.001000,-269.997153
710.000000,0.000920,-269.998042
720.000000,0.000850,-269.998784
730.000000,0.000785,-269.999384
740.000000,0.000726,-269.999815
750.000000,0.000670,-270.000000
760.000000,0.000615,-269.999730
770.000000,0.000559,-269.998430
780.000000,0.000496,-269.994197
790.000000,0.000412,-269.978195
800.000000,0.000256,-269.855205
810.000000,0.000648,-91.128482
820.000000,0.001083,-269.798193
830.000000,0.000704,-269.944099
840.000000,0.000592,-269.971614
850.000000,0.000530,-269.982100
860.000000,0.000486,-269.987411
870.000000,0.000451,-269.990565
880.000000,0.000422,-269.992638
890.000000,0.000396,-269.994101
900.000000,0.000373,-269.995188
910.000000,0.000351,-269.996030
920.000000,0.000332,-269.996701
930.000000,0.000313,-269.997250
940.000000,0.000296,-269.997709
950.000000,0.000279,-269.998097
960.000000,0.000263,-269.998430
970.000000,0.000248,-269.998715
980.000000,0.000233,-269.998977
990.000000,0.000219,-269.999195
1000.000000,0.000205,-269.999386
1010.000000,0.000192,-269.999553
1020.000000,0.000179,-269.999695
1030.000000,0.000166,-269.999812
1040.000000,0.000154,-269.999904
1050.000000,0.000142,-269.999968
1060.000000,0.000130,-269.999998
1070.000000,0.000118,-269.999989
1080.000000,0.000106,-269.999928
1090.000000,0.000095,-269.999800
1100.000000,0.000083,-269.999577
1110.000000,0.000072,-269.999215
1120.000000,0.000061,-269.998636
1130.000000,0.000050,-269.997692
1140.000000,0.000038,-269.996060
1150.000000,0.000027,-269.992887
1160.000000,0.000016,-269.984959
1170.000000,0.000005,-269.940225
1180.000000,0.000006,-90.058102
1190.000000,0.000018,-90.024678
1200.000000,0.000029,-90.017703
1210.000000,0.000040,-90.014867
1220.000000,0.000052,-90.013460
1230.000000,0.000064,-90.012725
1240.000000,0.000076,-90.012370
1250.000000,0.000088,-90.012263
1260.000000,0.000100,-90.012361
1270.000000,0.000112,-90.012303
1280.000000,0.000125,-90.012727
1290.000000,0.000138,-90.013136
1300.000000,0.000152,-90.013627
1310.000000,0.000166,-90.014204
1320.000000,0.000180,-90.014870
1330.000000,0.000195,-90.015630
1340.000000,0.000210,-90.016492
1350.000000,0.000225,-90.017464
1360.000000,0.000242,-90.018558
1370.000000,0.000259,-90.019789
1380.000000,0.000276,-90.021174
1390.000000,0.000295,-90.022734
1400.000000,0.000314,-90.024497
1410.000000,0.000334,-90.026494
1420.000000,0.000356,-90.028764
1430.000000,0.000379,-90.031356
1440.000000,0.000403,-90.034329
1450.000000,0.000428,-90.037760
1460.000000,0.000456,-90.041744
1470.000000,0.000485,-90.046404
1480.000000,0.000517,-90.051899
1490.000000,0.000551,-90.058442
1500.000000,0.000588,-90.066317
1510.000000,0.000629,-90.075914
1520.000000,0.000673,-90.087781
1530.000000,0.000723,-90.102707
1540.000000,0.000778,-90.121865
1550.000000,0.000840,-90.147061
1560.000000,0.000910,-90.181201
1570.000000,0.000991,-90.229212
1580.000000,0.001084,-90.300007
1590.000000,0.001195,-90.411101
1600.000000,0.001328,-90.600814
1610.000000,0.001493,-90.965887
1620.000000,0.001704,-91.801446
1630.000000,0.001973,-94.180514
1640.000000,0.002148,-98.960188
1650.000000,0.002316,-94.781564
1660.000000,0.002884,-91.681272
1670.000000,0.003773,-90.728331
1680.000000,0.005308,-90.367291
1690.000000,0.008729,-90.202632
1700.000000,0.023350,-90.146761
1710.000000,0.035658,-269.982567
1720.000000,0.010205,-269.994993
1730.000000,0.005976,-269.979623
1740.000000,0.004232,-269.966295
1750.000000,0.003279,-269.955618
1760.000000,0.002677,-269.946923
1770.000000,0.002261,-269.939594
1780.000000,0.001957,-269.933174
1790.000000,0.001724,-269.927333
1800.000000,0.001539,-269.921826
1810.000000,0.001389,-269.916468
1820.000000,0.001265,-269.911114
1830.000000,0.001160,-269.905645
1840.000000,0.001070,-269.899955
1850.000000,0.000992,-269.893949
1860.000000,0.000924,-269.887537
1870.000000,0.000863,-269.880624
1880.000000,0.000809,-269.873114
1890.000000,0.000760,-269.864900
1900.000000,0.000716,-269.855845
1910.000000,0.000676,-269.845769
1920.000000,0.000639,-269.834541
1930.000000,0.000604,-269.821544
1940.000000,0.000572,-269.802147
1950.000000,0.000537,-269.784929
1960.000000,0.000517,-269.780796
1970.000000,0.000490,-269.760780
1980.000000,0.000466,-269.738901
1990.000000,0.000443,-269.714320
2000.000000,0.000421,-269.686444


